File contains ACRIMSAT/ACRIM3 results
Corrected for degradation
Reconciled to 1 A.U.
Reported on "native scale" of ACRIM3 sensor C

Colums 1:	Year
Column 2:	TSI		(W/m2)
Column 3:	TSI Uncertainty (W/m2)
Column 4:	Epoch 1980 Day

2000.26120030 1367.492    0.008 7401
2000.26362191 1367.570    0.008 7402
2000.26509100 1367.465    0.010 7403
2000.27313300 1367.274    0.031 7405
2000.27474546 1367.429    0.007 7406
2000.27749654 1367.401    0.008 7407
2000.28005396 1367.453    0.020 7408
2000.28266340 1367.385    0.008 7409
2000.28551885 1367.281    0.006 7410
2000.28825463 1367.184    0.009 7411
2000.29098345 1367.092    0.008 7412
2000.29372168 1367.091    0.007 7413
2000.29644272 1367.131    0.010 7414
2000.29918653 1367.212    0.006 7415
2000.30190067 1367.289    0.008 7416
2000.31662961 1365.093    0.020 7421
2000.31831557 1365.259    0.008 7422
2000.32101893 1365.630    0.009 7423
2000.32348686 1365.699    0.010 7424
2000.33026692 1366.667    0.026 7426
2000.33194625 1366.865    0.008 7427
2000.33337094 1367.049    0.026 7428
2000.34292444 1367.187    0.040 7431
2000.35170415 1367.143    0.021 7434
2000.35513240 1367.031    0.023 7435
2000.35653086 1366.887    0.009 7436
2000.35929517 1366.466    0.008 7437
2000.36203053 1366.385    0.010 7438
2000.36475211 1366.481    0.007 7439
2000.36749349 1366.477    0.007 7440
2000.37021054 1366.338    0.006 7441
2000.37295021 1366.014    0.010 7442
2000.37567532 1365.584    0.008 7443
2000.37840526 1365.332    0.007 7444
2000.38114537 1365.168    0.008 7445
2000.38388222 1365.072    0.008 7446
2000.38662027 1365.498    0.010 7447
2000.38934380 1366.064    0.010 7448
2000.39208042 1366.509    0.013 7449
2000.39479913 1366.809    0.007 7450
2000.39753766 1366.875    0.007 7451
2000.40025930 1366.770    0.008 7452
2000.40300238 1366.614    0.008 7453
2000.40574444 1366.526    0.008 7454
2000.40847313 1366.436    0.007 7455
2000.41121095 1366.258    0.010 7456
2000.41392861 1366.153    0.007 7457
2000.41666487 1366.263    0.009 7458
2000.41938661 1366.459    0.008 7459
2000.42212827 1366.545    0.007 7460
2000.42485665 1366.493    0.008 7461
2000.42759605 1366.431    0.008 7462
2000.43032980 1366.444    0.008 7463
2000.43305885 1366.468    0.008 7464
2000.43579830 1366.472    0.008 7465
2000.43851775 1366.476    0.009 7466
2000.44125859 1366.674    0.008 7467
2000.44395465 1366.663    0.008 7468
2000.44651214 1366.588    0.012 7469
2000.44943821 1366.625    0.009 7470
2000.45140213 1366.693    0.017 7471
2000.45468563 1367.103    0.016 7472
2000.45849673 1367.200    0.015 7473
2000.46038607 1366.875    0.011 7474
2000.46310730 1366.620    0.011 7475
2000.46584765 1366.675    0.010 7476
2000.46958397 1366.674    0.017 7477
2000.47130906 1366.773    0.010 7478
2000.47403167 1367.041    0.011 7479
2000.47744755 1366.989    0.012 7480
2000.47848241 1366.947    0.020 7481
2000.48191538 1366.631    0.011 7482
2000.48569064 1366.263    0.015 7483
2000.48764984 1366.125    0.012 7484
2000.49111124 1366.080    0.018 7485
2000.49315794 1366.112    0.009 7486
2000.49589946 1366.383    0.011 7487
2000.49862083 1366.636    0.013 7488
2000.50136790 1366.848    0.010 7489
2000.50410555 1366.898    0.011 7490
2000.50682492 1366.851    0.009 7491
2000.50956869 1366.681    0.011 7492
2000.51228941 1366.465    0.010 7493
2000.51502266 1366.428    0.009 7494
2000.51775592 1366.294    0.011 7495
2000.52049351 1366.361    0.010 7496
2000.52322748 1366.280    0.009 7497
2000.52595248 1366.193    0.010 7498
2000.52761997 1366.175    0.021 7499
2000.53141401 1366.459    0.010 7500
2000.53403929 1366.717    0.015 7501
2000.53687068 1366.849    0.011 7502
2000.53961056 1366.853    0.010 7503
2000.54235051 1366.824    0.011 7504
2000.54508400 1366.674    0.011 7505
2000.54782373 1366.457    0.011 7506
2000.55054397 1366.113    0.011 7507
2000.55328082 1366.007    0.013 7508
2000.55600280 1366.275    0.011 7509
2000.55874585 1366.472    0.011 7510
2000.56146639 1366.644    0.011 7511
2000.56420253 1366.704    0.011 7512
2000.56694260 1366.937    0.011 7513
2000.56967007 1367.096    0.010 7514
2000.57241276 1367.104    0.011 7515
2000.57513303 1367.142    0.009 7516
2000.57787144 1367.284    0.011 7517
2000.58061513 1367.312    0.012 7518
2000.58301745 1367.293    0.012 7519
2000.58715556 1367.179    0.024 7520
2000.58879554 1367.196    0.013 7521
2000.59153649 1367.253    0.011 7522
2000.59426028 1367.179    0.012 7523
2000.59699863 1367.189    0.011 7524
2000.59971707 1366.988    0.011 7525
2000.60245854 1366.926    0.010 7526
2000.60518210 1366.929    0.011 7527
2000.60792255 1367.114    0.011 7528
2000.61066067 1367.323    0.010 7529
2000.61338878 1367.631    0.011 7530
2000.61612686 1367.728    0.010 7531
2000.61884508 1367.533    0.011 7532
2000.62129062 1367.204    0.014 7533
2000.62532666 1367.008    0.023 7534
2000.62704765 1367.122    0.011 7535
2000.62977642 1367.262    0.011 7536
2000.63251515 1367.446    0.011 7537
2000.63525639 1367.495    0.011 7538
2000.63797493 1367.333    0.012 7539
2000.63982442 1367.145    0.019 7540
2000.64343139 1366.834    0.010 7541
2000.64617109 1366.855    0.009 7542
2000.64856587 1366.897    0.013 7543
2000.65817558 1366.699    0.019 7546
2000.65984346 1366.723    0.010 7547
2000.66256336 1366.862    0.011 7548
2000.66530359 1367.011    0.010 7549
2000.66802517 1367.018    0.009 7550
2000.67076305 1366.937    0.009 7551
2000.67349298 1366.931    0.010 7552
2000.67623125 1366.812    0.010 7553
2000.67897016 1366.674    0.008 7554
2000.68169194 1366.975    0.012 7555
2000.68443105 1367.456    0.011 7556
2000.68714961 1367.709    0.012 7557
2000.68987033 1367.794    0.009 7558
2000.69244312 1367.747    0.011 7559
2000.69535286 1367.632    0.010 7560
2000.69809629 1367.423    0.009 7561
2000.70082463 1367.357    0.011 7562
2000.70356009 1367.110    0.011 7563
2000.70627955 1366.934    0.009 7564
2000.70901740 1366.875    0.010 7565
2000.71040542 1366.727    0.054 7566
2000.72102263 1365.137    0.032 7569
2000.72268513 1364.837    0.012 7570
2000.72540793 1364.462    0.010 7571
2000.72815002 1364.583    0.011 7572
2000.73086922 1365.206    0.014 7573
2000.73366810 1366.036    0.020 7574
2000.73633090 1366.561    0.011 7575
2000.73906593 1367.084    0.011 7576
2000.74180370 1367.443    0.009 7577
2000.74453984 1367.287    0.009 7578
2000.74727759 1366.959    0.008 7579
2000.74999458 1366.550    0.010 7580
2000.75273168 1366.568    0.008 7581
2000.75545272 1366.894    0.010 7582
2000.75819798 1367.209    0.009 7583
2000.76092665 1367.498    0.008 7584
2000.76366386 1367.553    0.008 7585
2000.76640092 1367.501    0.008 7586
2000.76912295 1367.385    0.007 7587
2000.77186985 1367.335    0.008 7588
2000.77458796 1367.155    0.008 7589
2000.77737679 1367.065    0.008 7590
2000.78003929 1367.200    0.009 7591
2000.78278687 1367.324    0.008 7592
2000.78552472 1367.299    0.007 7593
2000.78824715 1367.362    0.009 7594
2000.79098236 1367.535    0.008 7595
2000.79371244 1367.604    0.008 7596
2000.79644819 1367.547    0.007 7597
2000.79916826 1367.443    0.007 7598
2000.80191622 1367.250    0.009 7599
2000.80464915 1367.192    0.007 7600
2000.80737867 1367.313    0.007 7601
2000.81011469 1367.481    0.007 7602
2000.81283599 1367.689    0.008 7603
2000.81557644 1367.810    0.007 7604
2000.81829648 1367.823    0.008 7605
2000.82103887 1367.659    0.007 7606
2000.82376336 1367.581    0.007 7607
2000.82643256 1367.641    0.009 7608
2000.82923937 1367.585    0.008 7609
2000.83196425 1367.562    0.006 7610
2000.83470558 1367.379    0.009 7611
2000.83742842 1367.094    0.008 7612
2000.84016380 1366.973    0.007 7613
2000.84288670 1367.005    0.008 7614
2000.84562566 1367.154    0.007 7615
2000.84832022 1367.413    0.010 7616
2000.85109565 1367.548    0.007 7617
2000.85383254 1367.461    0.007 7618
2000.85655373 1367.219    0.009 7619
2000.85929413 1367.000    0.006 7620
2000.86201139 1366.964    0.006 7621
2000.86475391 1367.013    0.007 7622
2000.86748410 1367.030    0.006 7623
2000.87022331 1367.112    0.007 7624
2000.87295822 1367.248    0.008 7625
2000.87537910 1367.276    0.008 7626
2000.88219403 1366.824    0.014 7628
2000.88388294 1366.856    0.006 7629
2000.88660140 1366.903    0.006 7630
2000.88934015 1367.029    0.006 7631
2000.89207765 1367.133    0.006 7632
2000.89480821 1367.314    0.006 7633
2000.89754864 1367.335    0.006 7634
2000.90027059 1367.409    0.006 7635
2000.90226595 1367.396    0.017 7636
2000.90676257 1367.497    0.024 7637
2000.90846288 1367.328    0.006 7638
2000.91119154 1367.259    0.008 7639
2000.91393231 1367.279    0.005 7640
2000.91667562 1367.402    0.006 7641
2000.91939488 1367.527    0.006 7642
2000.92213399 1367.709    0.006 7643
2000.92484755 1367.785    0.006 7644
2000.92759509 1367.494    0.007 7645
2000.93032729 1367.168    0.006 7646
2000.93306269 1367.045    0.005 7647
2000.93580127 1367.084    0.007 7648
2000.93852210 1367.120    0.005 7649
2000.94126982 1367.254    0.006 7650
2000.94394955 1367.342    0.005 7651
2000.94672044 1367.358    0.006 7652
2000.94943772 1367.214    0.005 7653
2000.95218312 1367.084    0.008 7654
2000.95491594 1367.040    0.006 7655
2000.95765114 1367.205    0.008 7656
2000.96039015 1367.411    0.007 7657
2000.96310597 1367.692    0.006 7658
2000.96585213 1367.748    0.006 7659
2000.96825487 1367.719    0.006 7660
2000.97232967 1367.470    0.011 7661
2000.97404266 1367.364    0.006 7662
2000.97678436 1367.231    0.006 7663
2000.97951387 1367.176    0.006 7664
2000.98222441 1367.161    0.006 7665
2000.98497737 1367.174    0.006 7666
2000.98769147 1367.219    0.006 7667
2000.99043481 1367.170    0.007 7668
2000.99316098 1367.076    0.007 7669
2000.99590652 1366.924    0.006 7670
2000.99861969 1366.687    0.008 7671
2001.00140943 1366.546    0.007 7672
2001.00416257 1366.668    0.007 7673
2001.00684297 1366.829    0.007 7674
2001.00959060 1366.936    0.007 7675
2001.01231155 1367.127    0.008 7676
2001.01506477 1367.358    0.008 7677
2001.01780958 1367.464    0.007 7678
2001.02054300 1367.447    0.007 7679
2001.02329126 1367.367    0.008 7680
2001.02602138 1367.217    0.008 7681
2001.02877072 1367.067    0.008 7682
2001.03149464 1366.873    0.008 7683
2001.03424490 1366.756    0.008 7684
2001.03698353 1366.875    0.008 7685
2001.03973171 1367.107    0.009 7686
2001.04247169 1367.371    0.008 7687
2001.04520513 1367.521    0.009 7688
2001.04839589 1367.597    0.017 7689
2001.05056418 1367.477    0.010 7690
2001.05342504 1367.398    0.009 7691
2001.05615429 1367.322    0.009 7692
2001.05890274 1367.330    0.009 7693
2001.06165081 1367.430    0.009 7694
2001.06438482 1367.272    0.011 7695
2001.06712693 1367.228    0.010 7696
2001.06986053 1367.304    0.012 7697
2001.07260524 1367.274    0.009 7698
2001.07533600 1367.274    0.010 7699
2001.07807619 1367.385    0.010 7700
2001.08082390 1367.434    0.009 7701
2001.08348917 1367.547    0.010 7702
2001.08630460 1367.618    0.010 7703
2001.08908876 1367.564    0.010 7704
2001.09178074 1367.559    0.009 7705
2001.09450892 1367.656    0.012 7706
2001.09725746 1367.586    0.010 7707
2001.10000256 1367.312    0.010 7708
2001.10273491 1367.204    0.010 7709
2001.10549308 1367.185    0.011 7710
2001.10821593 1367.253    0.010 7711
2001.11096337 1367.169    0.010 7712
2001.11368874 1367.222    0.010 7713
2001.11643823 1367.321    0.010 7714
2001.11917192 1367.260    0.009 7715
2001.12191725 1367.265    0.011 7716
2001.12465533 1367.261    0.009 7717
2001.12739275 1367.229    0.009 7718
2001.13014524 1367.197    0.010 7719
2001.13287342 1367.197    0.010 7720
2001.13561711 1367.138    0.010 7721
2001.13833720 1367.132    0.009 7722
2001.14099893 1367.283    0.015 7723
2001.14383814 1367.394    0.010 7724
2001.14657610 1367.346    0.010 7725
2001.14932611 1367.329    0.008 7726
2001.15248187 1367.308    0.011 7727
2001.15479478 1367.203    0.011 7728
2001.15752326 1367.248    0.008 7729
2001.16027459 1367.263    0.009 7730
2001.16301365 1367.373    0.009 7731
2001.16576040 1367.462    0.009 7732
2001.16850268 1367.450    0.008 7733
2001.17122892 1367.225    0.009 7734
2001.17397723 1367.033    0.009 7735
2001.17670656 1366.788    0.008 7736
2001.17945251 1366.751    0.008 7737
2001.18218468 1366.834    0.009 7738
2001.18493312 1367.068    0.009 7739
2001.18767252 1367.221    0.010 7740
2001.19040876 1367.384    0.007 7741
2001.19302504 1367.418    0.011 7742
2001.19588491 1367.274    0.008 7743
2001.19863082 1367.043    0.008 7744
2001.20079388 1366.939    0.014 7745
2001.20330186 1366.960    0.014 7746
2001.20685817 1367.129    0.008 7747
2001.20960756 1367.111    0.007 7748
2001.21232798 1367.202    0.007 7749
2001.21506783 1367.307    0.008 7750
2001.21780726 1367.281    0.008 7751
2001.22053667 1367.065    0.007 7752
2001.22328947 1366.879    0.008 7753
2001.22602389 1366.743    0.008 7754
2001.22877111 1366.425    0.009 7755
2001.23151841 1365.867    0.013 7756
2001.23423593 1364.874    0.014 7757
2001.23699117 1364.494    0.007 7758
2001.23971882 1364.706    0.009 7759
2001.24246869 1365.065    0.010 7760
2001.24519738 1365.589    0.010 7761
2001.24794380 1366.002    0.009 7762
2001.25068863 1366.467    0.009 7763
2001.25340822 1366.857    0.010 7764
2001.25603568 1367.090    0.013 7765
2001.25889571 1366.956    0.008 7766
2001.26164558 1366.564    0.008 7767
2001.26437149 1366.360    0.006 7768
2001.26712179 1366.195    0.007 7769
2001.26987189 1366.072    0.007 7770
2001.27260745 1366.125    0.010 7771
2001.27535150 1366.207    0.007 7772
2001.27807584 1366.407    0.007 7773
2001.28082155 1366.674    0.007 7774
2001.28354920 1366.821    0.006 7775
2001.28630000 1366.899    0.006 7776
2001.28904088 1366.813    0.006 7777
2001.29178244 1366.736    0.006 7778
2001.29453007 1366.693    0.006 7779
2001.29725585 1366.682    0.007 7780
2001.30000477 1366.596    0.007 7781
2001.30273411 1366.245    0.012 7782
2001.30547499 1366.090    0.008 7783
2001.30821397 1366.083    0.006 7784
2001.31095891 1366.047    0.005 7785
2001.31371103 1366.130    0.005 7786
2001.31643520 1366.343    0.006 7787
2001.31917704 1366.482    0.006 7788
2001.32191047 1366.681    0.006 7789
2001.32373394 1366.778    0.010 7790
2001.32850396 1366.398    0.021 7791
2001.33013551 1366.747    0.006 7792
2001.33267823 1366.852    0.006 7793
2001.33527140 1366.835    0.026 7794
2001.33836409 1366.708    0.007 7795
2001.34109093 1366.922    0.008 7796
2001.34383585 1366.990    0.009 7797
2001.34656067 1366.905    0.012 7798
2001.34931246 1366.874    0.005 7799
2001.35206019 1366.813    0.005 7800
2001.35479663 1366.718    0.007 7801
2001.35753883 1366.438    0.007 7802
2001.36026680 1366.100    0.008 7803
2001.36301436 1366.000    0.008 7804
2001.36573853 1366.102    0.008 7805
2001.36849092 1366.341    0.008 7806
2001.37123727 1366.602    0.008 7807
2001.37397168 1366.836    0.007 7808
2001.37672106 1366.968    0.007 7809
2001.37944683 1366.941    0.007 7810
2001.38219760 1366.886    0.007 7811
2001.38492210 1366.728    0.009 7812
2001.38766592 1366.463    0.013 7813
2001.39041081 1366.167    0.008 7814
2001.39315643 1366.083    0.008 7815
2001.39562443 1366.223    0.009 7816
2001.39932624 1366.554    0.014 7817
2001.40137342 1366.806    0.010 7818
2001.40409945 1367.078    0.009 7819
2001.40685180 1367.199    0.009 7820
2001.40957673 1367.140    0.010 7821
2001.41232793 1367.005    0.011 7822
2001.41507959 1366.943    0.009 7823
2001.41785831 1366.877    0.011 7824
2001.42055253 1366.732    0.010 7825
2001.42327323 1366.467    0.010 7826
2001.42602600 1366.451    0.009 7827
2001.42875757 1366.498    0.012 7828
2001.43156304 1366.456    0.010 7829
2001.43425921 1366.051    0.014 7830
2001.43698381 1365.545    0.010 7831
2001.43973160 1365.603    0.009 7832
2001.44234120 1365.905    0.018 7833
2001.44520895 1366.377    0.011 7834
2001.44793814 1366.587    0.011 7835
2001.45068636 1366.592    0.009 7836
2001.45343153 1366.588    0.009 7837
2001.45616249 1366.254    0.012 7838
2001.45891264 1365.981    0.010 7839
2001.46163666 1365.757    0.010 7840
2001.46438579 1365.653    0.009 7841
2001.46711615 1365.617    0.012 7842
2001.46986141 1365.883    0.012 7843
2001.47261125 1366.366    0.011 7844
2001.47534381 1366.678    0.009 7845
2001.47809432 1366.859    0.011 7846
2001.48081561 1366.894    0.010 7847
2001.48356182 1366.746    0.009 7848
2001.48629285 1366.739    0.011 7849
2001.48903721 1366.809    0.009 7850
2001.49178904 1366.867    0.008 7851
2001.49452566 1366.959    0.010 7852
2001.49726825 1367.069    0.007 7853
2001.49999221 1367.206    0.006 7854
2001.50274630 1367.170    0.006 7855
2001.50546701 1366.978    0.010 7856
2001.50821623 1366.786    0.005 7857
2001.51096239 1366.665    0.008 7858
2001.51372690 1366.544    0.006 7859
2001.51635835 1366.458    0.005 7860
2001.51922738 1366.475    0.009 7861
2001.52191982 1366.646    0.006 7862
2001.52465067 1366.826    0.007 7863
2001.52739385 1366.872    0.006 7864
2001.53013954 1366.794    0.006 7865
2001.53287388 1366.535    0.009 7866
2001.53562594 1366.299    0.007 7867
2001.53835098 1366.161    0.007 7868
2001.54109836 1366.199    0.006 7869
2001.54382537 1366.404    0.008 7870
2001.54657320 1366.558    0.007 7871
2001.54932129 1366.550    0.007 7872
2001.55111476 1366.467    0.012 7873
2001.55600830 1366.385    0.020 7874
2001.55752532 1366.405    0.007 7875
2001.56027504 1366.440    0.005 7876
2001.56300157 1366.489    0.008 7877
2001.56574774 1366.523    0.006 7878
2001.56849118 1366.606    0.007 7879
2001.57123529 1366.654    0.006 7880
2001.57367994 1366.727    0.009 7881
2001.57670325 1366.753    0.008 7882
2001.57945571 1366.730    0.007 7883
2001.58218052 1366.656    0.008 7884
2001.58493203 1366.540    0.006 7885
2001.58766152 1366.384    0.009 7886
2001.59041531 1365.960    0.009 7887
2001.59255866 1365.730    0.015 7888
2001.59632445 1365.915    0.010 7889
2001.59910789 1366.038    0.028 7890
2001.60136109 1366.260    0.009 7891
2001.60410638 1366.475    0.006 7892
2001.60684847 1366.515    0.010 7893
2001.60864699 1366.238    0.010 7894
2001.61298652 1366.187    0.009 7895
2001.61505962 1366.326    0.009 7896
2001.61780677 1366.568    0.006 7897
2001.62053171 1366.759    0.007 7898
2001.62328848 1366.929    0.007 7899
2001.62602440 1367.035    0.007 7900
2001.62876631 1366.754    0.011 7901
2001.63152014 1366.446    0.007 7902
2001.63391467 1366.246    0.010 7903
2001.63665441 1365.796    0.014 7903
2001.64057066 1366.081    0.023 7905
2001.64245981 1366.516    0.008 7906
2001.64520525 1366.643    0.007 7907
2001.64795375 1366.580    0.006 7908
2001.65069601 1366.421    0.007 7909
2001.65341979 1366.350    0.006 7910
2001.65609739 1366.355    0.008 7911
2001.65889717 1366.297    0.008 7912
2001.66164341 1366.119    0.006 7913
2001.66437439 1366.081    0.006 7914
2001.66712139 1366.096    0.005 7915
2001.66987215 1366.036    0.007 7916
2001.67259518 1366.043    0.007 7917
2001.67534627 1366.098    0.006 7918
2001.67808170 1366.176    0.006 7919
2001.68081931 1366.414    0.007 7920
2001.68355492 1366.486    0.006 7921
2001.68630356 1366.242    0.008 7922
2001.68905344 1365.857    0.009 7923
2001.69177976 1365.521    0.008 7924
2001.69451995 1365.604    0.007 7925
2001.69725372 1365.867    0.008 7926
2001.69999701 1366.222    0.007 7927
2001.70273348 1366.509    0.010 7928
2001.70548399 1366.812    0.007 7929
2001.70822420 1366.927    0.007 7930
2001.71094670 1366.901    0.007 7931
2001.71370464 1366.696    0.007 7932
2001.71642600 1366.554    0.007 7933
2001.71917460 1366.398    0.008 7934
2001.72191637 1366.218    0.008 7935
2001.72466162 1365.949    0.007 7936
2001.72740721 1365.790    0.008 7937
2001.73013578 1365.587    0.007 7938
2001.73288450 1365.540    0.007 7939
2001.73560751 1365.739    0.006 7940
2001.73834837 1365.914    0.008 7941
2001.74108817 1366.104    0.007 7942
2001.74389903 1366.268    0.009 7943
2001.74658740 1366.433    0.006 7944
2001.74930376 1366.577    0.007 7945
2001.75205513 1366.801    0.007 7946
2001.75478588 1367.137    0.009 7947
2001.75753014 1367.480    0.006 7948
2001.76027376 1367.558    0.006 7949
2001.76301860 1367.368    0.006 7950
2001.76576278 1367.183    0.009 7951
2001.76817343 1367.057    0.010 7952
2001.77123871 1367.162    0.007 7953
2001.77364649 1367.283    0.007 7954
2001.77782220 1367.346    0.013 7955
2001.77945067 1367.246    0.006 7956
2001.78219319 1367.010    0.008 7957
2001.78494121 1366.684    0.006 7958
2001.78766108 1366.507    0.008 7959
2001.79041490 1366.424    0.006 7960
2001.79314224 1366.411    0.006 7961
2001.79588876 1366.449    0.008 7962
2001.79862443 1366.594    0.007 7963
2001.80137098 1366.722    0.007 7964
2001.80411794 1366.751    0.006 7965
2001.80684733 1366.832    0.008 7966
2001.80959325 1366.958    0.006 7967
2001.81231694 1366.964    0.006 7968
2001.81506612 1366.796    0.009 7969
2001.81780740 1366.529    0.007 7970
2001.82055119 1366.366    0.007 7971
2001.82329682 1366.106    0.006 7972
2001.82602064 1365.876    0.007 7973
2001.82866346 1365.728    0.008 7974
2001.83150203 1365.821    0.007 7975
2001.83424492 1366.000    0.007 7976
2001.83698882 1366.210    0.007 7977
2001.83972677 1366.356    0.007 7978
2001.84247518 1366.602    0.007 7979
2001.84519887 1366.742    0.006 7980
2001.84794805 1366.730    0.007 7981
2001.85067397 1366.632    0.009 7982
2001.85341675 1366.163    0.010 7983
2001.85616706 1365.777    0.007 7984
2001.85890409 1365.819    0.008 7985
2001.86147870 1366.133    0.013 7986
2001.86437919 1366.413    0.007 7987
2001.86712179 1366.645    0.008 7988
2001.86985088 1366.944    0.008 7989
2001.87259566 1367.051    0.006 7990
2001.87534616 1366.969    0.007 7991
2001.87776718 1366.715    0.009 7992
2001.88050690 1366.269    0.012 7992
2001.88739918 1366.805    0.014 7995
2001.88902979 1367.009    0.008 7996
2001.89178017 1367.215    0.007 7997
2001.89453123 1367.290    0.007 7998
2001.89725892 1367.371    0.007 7999
2001.90000597 1367.338    0.007 8000
2001.90273256 1367.177    0.008 8001
2001.90547703 1366.884    0.010 8002
2001.90820576 1366.624    0.008 8003
2001.91096467 1366.390    0.008 8004
2001.91370940 1366.172    0.008 8005
2001.91643262 1366.115    0.007 8006
2001.91918330 1366.264    0.008 8007
2001.92190789 1366.434    0.008 8008
2001.92466192 1366.622    0.007 8009
2001.92706520 1366.630    0.008 8010
2001.93122371 1366.763    0.018 8011
2001.93288540 1366.932    0.011 8012
2001.93561009 1367.335    0.010 8013
2001.93836550 1367.493    0.010 8014
2001.94109726 1367.285    0.009 8015
2001.94354842 1367.168    0.011 8016
2001.94634922 1367.125    0.010 8017
2001.94946844 1367.207    0.012 8018
2001.95204863 1367.101    0.075 8019
2001.95478935 1367.079    0.009 8020
2001.95754024 1367.199    0.009 8021
2001.96025817 1367.475    0.010 8022
2001.96356213 1367.689    0.020 8023
2001.96575294 1367.679    0.009 8024
2001.96849409 1367.298    0.011 8025
2001.97123725 1366.918    0.009 8026
2001.97396538 1366.778    0.009 8027
2001.97671553 1366.519    0.011 8028
2001.97943945 1366.255    0.009 8029
2001.98218670 1366.488    0.010 8030
2001.98493989 1366.724    0.011 8031
2001.98767085 1367.048    0.011 8032
2001.99041773 1367.278    0.010 8033
2001.99313994 1367.467    0.012 8034
2001.99589403 1367.787    0.010 8035
2001.99861792 1367.894    0.011 8036
2002.00140029 1367.828    0.007 8037
2002.00411781 1367.686    0.008 8038
2002.00684540 1367.483    0.009 8039
2002.00959583 1367.629    0.011 8040
2002.01231676 1367.720    0.010 8041
2002.01507295 1367.713    0.007 8042
2002.01780650 1367.853    0.010 8043
2002.02024120 1367.817    0.008 8044
2002.02463530 1367.008    0.021 8045
2002.02602158 1366.898    0.009 8046
2002.02877381 1366.895    0.008 8047
2002.03149808 1367.044    0.010 8048
2002.03424227 1367.166    0.010 8049
2002.03698518 1367.390    0.009 8050
2002.03972741 1367.336    0.007 8051
2002.04247569 1367.311    0.010 8052
2002.04519886 1367.158    0.010 8053
2002.04794897 1367.451    0.009 8054
2002.04992187 1367.556    0.014 8055
2002.05362123 1367.632    0.008 8056
2002.05712980 1367.598    0.017 8057
2002.05890251 1367.678    0.006 8058
2002.06165389 1367.779    0.009 8059
2002.06437924 1367.571    0.008 8060
2002.06711654 1367.574    0.007 8061
2002.06985106 1367.713    0.010 8062
2002.07260340 1367.870    0.007 8063
2002.07535289 1367.776    0.010 8064
2002.07807913 1367.390    0.007 8065
2002.08082912 1367.183    0.010 8066
2002.08355177 1366.956    0.008 8067
2002.08630902 1366.929    0.006 8068
2002.08904041 1366.973    0.006 8069
2002.09178131 1367.167    0.009 8070
2002.09453105 1367.460    0.006 8071
2002.09725611 1367.625    0.006 8072
2002.10000621 1367.619    0.006 8073
2002.10272892 1367.522    0.007 8074
2002.10547100 1367.551    0.006 8075
2002.10626400 1368.066    0.082 8075
2002.10821887 1368.075    0.010 8076
2002.11096234 1367.949    0.011 8077
2002.11370976 1367.747    0.011 8078
2002.11643092 1367.570    0.010 8079
2002.11917920 1367.572    0.012 8080
2002.12190571 1367.792    0.012 8081
2002.12465810 1368.074    0.011 8082
2002.12740323 1368.118    0.010 8083
2002.13013753 1368.073    0.010 8084
2002.13288384 1368.007    0.010 8085
2002.13560922 1367.813    0.011 8086
2002.13835805 1367.761    0.010 8087
2002.14108927 1367.902    0.011 8088
2002.14383567 1368.051    0.012 8089
2002.14658528 1368.221    0.012 8090
2002.14931161 1368.299    0.011 8091
2002.15205918 1368.033    0.010 8092
2002.15478563 1367.999    0.010 8093
2002.15753409 1367.962    0.012 8094
2002.16026608 1367.240    0.007 8095
2002.16269561 1367.242    0.006 8096
2002.16707513 1367.463    0.035 8097
2002.16849221 1367.569    0.006 8098
2002.17123929 1367.502    0.006 8099
2002.17396106 1367.418    0.007 8100
2002.17671135 1367.370    0.006 8101
2002.17945719 1367.326    0.008 8102
2002.18219130 1367.327    0.006 8103
2002.18493974 1367.322    0.007 8104
2002.18766374 1367.211    0.009 8105
2002.19041231 1366.969    0.008 8106
2002.19314115 1366.741    0.006 8107
2002.19589265 1366.675    0.006 8108
2002.19863899 1366.662    0.008 8109
2002.20136630 1366.666    0.007 8110
2002.20411483 1366.764    0.007 8111
2002.20683853 1366.816    0.006 8112
2002.20959024 1366.880    0.007 8113
2002.21232757 1367.001    0.006 8114
2002.21506772 1367.149    0.006 8115
2002.21782005 1367.301    0.007 8116
2002.22054379 1367.359    0.006 8117
2002.22329255 1367.270    0.006 8118
2002.22601629 1367.105    0.007 8119
2002.22876465 1366.884    0.006 8120
2002.23150672 1366.879    0.008 8121
2002.23424818 1367.005    0.006 8122
2002.23699751 1367.043    0.006 8123
2002.23972123 1367.210    0.006 8124
2002.24246977 1366.953    0.010 8125
2002.24519802 1366.481    0.009 8126
2002.24793991 1365.924    0.010 8127
2002.25068817 1365.596    0.007 8128
2002.25341945 1365.657    0.007 8129
2002.25617147 1366.011    0.008 8130
2002.25889121 1366.420    0.010 8131
2002.26164170 1366.802    0.008 8132
2002.26438069 1366.945    0.007 8133
2002.26712728 1366.949    0.007 8134
2002.26987928 1366.824    0.007 8135
2002.27260068 1366.741    0.007 8136
2002.27534397 1366.652    0.007 8137
2002.27806622 1366.477    0.009 8138
2002.28081731 1366.359    0.006 8139
2002.28356730 1366.344    0.007 8140
2002.28630293 1366.441    0.007 8141
2002.28904921 1366.511    0.008 8142
2002.29176566 1366.605    0.007 8143
2002.29248900 1366.906    0.040 8143
2002.29451945 1366.764    0.007 8144
2002.29725732 1366.827    0.007 8145
2002.30000861 1366.854    0.007 8146
2002.30275187 1366.837    0.007 8147
2002.30547529 1366.748    0.008 8148
2002.30822915 1366.732    0.007 8149
2002.31094860 1366.674    0.007 8150
2002.31369631 1366.762    0.007 8151
2002.31643552 1366.864    0.007 8152
2002.31917844 1366.825    0.007 8153
2002.32192259 1366.864    0.007 8154
2002.32465076 1366.950    0.007 8155
2002.32740218 1367.145    0.009 8156
2002.33012516 1367.262    0.008 8157
2002.33287720 1367.253    0.008 8158
2002.33561630 1366.990    0.008 8159
2002.33835107 1366.755    0.007 8160
2002.34110660 1366.744    0.007 8161
2002.34382598 1366.719    0.007 8162
2002.34657821 1366.666    0.008 8163
2002.34931375 1366.635    0.007 8164
2002.35205522 1366.626    0.008 8165
2002.35479974 1366.513    0.007 8166
2002.35752648 1366.570    0.008 8167
2002.36028251 1366.662    0.008 8168
2002.36300203 1366.772    0.007 8169
2002.36575376 1366.643    0.008 8170
2002.36849717 1366.570    0.007 8171
2002.37123454 1366.578    0.008 8172
2002.37398217 1366.519    0.007 8173
2002.37670427 1366.360    0.008 8174
2002.37945361 1366.306    0.007 8175
2002.38219113 1366.222    0.009 8176
2002.38493333 1366.243    0.008 8177
2002.38768791 1366.328    0.008 8178
2002.39040723 1366.331    0.008 8179
2002.39315950 1366.390    0.007 8180
2002.39588314 1366.486    0.009 8181
2002.39862765 1366.730    0.007 8182
2002.40137870 1366.898    0.009 8183
2002.40411054 1367.020    0.007 8184
2002.40686212 1367.027    0.007 8185
2002.40958569 1366.958    0.009 8186
2002.41233043 1366.909    0.008 8187
2002.41505851 1366.755    0.007 8188
2002.41781131 1366.591    0.008 8189
2002.42055951 1366.521    0.007 8190
2002.42328517 1366.500    0.008 8191
2002.42603159 1366.574    0.009 8192
2002.42875481 1366.842    0.008 8193
2002.43150869 1366.880    0.007 8194
2002.43425119 1366.759    0.011 8195
2002.43698764 1366.668    0.008 8196
2002.43973394 1366.549    0.008 8197
2002.44248071 1366.472    0.009 8198
2002.44520988 1366.605    0.009 8199
2002.44793958 1366.804    0.008 8200
2002.45068287 1366.872    0.007 8201
2002.45343605 1366.789    0.009 8202
2002.45616082 1366.751    0.008 8203
2002.45890854 1366.921    0.008 8204
2002.46163138 1366.937    0.008 8205
2002.46437933 1367.021    0.008 8206
2002.46712230 1366.937    0.010 8207
2002.46986279 1366.800    0.008 8208
2002.47261030 1366.593    0.009 8209
2002.47523933 1366.517    0.007 8210
2002.47903377 1366.422    0.014 8211
2002.48081407 1366.583    0.008 8212
2002.48356460 1366.758    0.010 8213
2002.48631014 1366.960    0.008 8214
2002.48903838 1367.086    0.008 8215
2002.49178934 1367.111    0.008 8216
2002.49451222 1367.085    0.009 8217
2002.49725974 1366.847    0.007 8218
2002.49999961 1366.697    0.007 8219
2002.50273777 1366.706    0.006 8220
2002.50549312 1366.723    0.010 8221
2002.50821398 1366.582    0.008 8222
2002.51096170 1366.530    0.006 8223
2002.51368373 1366.536    0.007 8224
2002.51643520 1366.668    0.007 8225
2002.51918206 1366.836    0.006 8226
2002.52191180 1366.866    0.006 8227
2002.52466604 1366.769    0.008 8228
2002.52738894 1366.428    0.007 8229
2002.53013645 1366.227    0.008 8230
2002.53287635 1366.008    0.007 8231
2002.53561448 1365.777    0.007 8232
2002.53836700 1365.700    0.008 8233
2002.54108985 1365.584    0.008 8234
2002.54383757 1365.645    0.008 8235
2002.54656222 1365.659    0.008 8236
2002.54931107 1365.646    0.006 8237
2002.55206120 1365.691    0.007 8238
2002.55478917 1365.780    0.007 8239
2002.55655086 1365.896    0.013 8240
2002.56026481 1366.144    0.007 8241
2002.56301232 1366.070    0.008 8242
2002.56575550 1365.647    0.009 8243
2002.56849524 1365.426    0.008 8244
2002.57124286 1365.125    0.007 8245
2002.57395875 1365.063    0.007 8246
2002.57671158 1365.480    0.010 8247
2002.57944303 1365.880    0.009 8248
2002.58219326 1366.310    0.009 8249
2002.58494036 1366.649    0.011 8250
2002.58767028 1366.662    0.007 8251
2002.59041691 1366.465    0.007 8252
2002.59313980 1366.501    0.009 8253
2002.59588873 1366.648    0.008 8254
2002.59863378 1366.660    0.007 8255
2002.60137025 1366.513    0.007 8256
2002.60411785 1366.463    0.007 8257
2002.60684071 1366.538    0.008 8258
2002.60959056 1366.697    0.008 8259
2002.61232413 1366.702    0.007 8260
2002.61507312 1366.324    0.009 8261
2002.61782126 1365.825    0.009 8262
2002.62054420 1365.492    0.010 8263
2002.62329193 1364.889    0.011 8264
2002.62601480 1364.479    0.009 8265
2002.62876371 1364.585    0.008 8266
2002.63150635 1365.318    0.014 8267
2002.63424445 1366.150    0.012 8268
2002.63699347 1366.691    0.009 8269
2002.63971822 1366.786    0.008 8270
2002.64246739 1366.591    0.010 8271
2002.64519131 1366.385    0.007 8272
2002.64795035 1366.337    0.007 8273
2002.65069538 1366.443    0.008 8274
2002.65341423 1366.503    0.008 8275
2002.65616930 1366.621    0.006 8276
2002.65889489 1366.719    0.006 8277
2002.66164032 1366.604    0.007 8278
2002.66438676 1366.408    0.008 8279
2002.66712161 1366.409    0.006 8280
2002.66987422 1366.342    0.006 8281
2002.67259158 1366.229    0.007 8282
2002.67534247 1366.130    0.006 8283
2002.67807835 1366.263    0.007 8284
2002.68082275 1366.515    0.008 8285
2002.68357017 1366.946    0.010 8286
2002.68629480 1367.165    0.006 8287
2002.68904528 1367.031    0.008 8288
2002.69176394 1366.564    0.011 8289
2002.69451558 1366.110    0.008 8290
2002.69726515 1365.874    0.006 8291
2002.69999442 1365.955    0.007 8292
2002.70274920 1366.184    0.007 8293
2002.70547138 1366.392    0.007 8294
2002.70821630 1366.669    0.008 8295
2002.71095210 1366.766    0.006 8296
2002.71369645 1366.679    0.006 8297
2002.71645308 1366.521    0.007 8298
2002.71917354 1366.267    0.007 8299
2002.72192311 1366.143    0.007 8300
2002.72464600 1366.296    0.007 8301
2002.72739419 1366.333    0.007 8302
2002.73014691 1366.369    0.007 8303
2002.73287405 1366.548    0.006 8304
2002.73534351 1366.604    0.007 8305
2002.74493384 1366.646    0.013 8308
2002.74657124 1366.549    0.008 8309
2002.74932669 1366.516    0.006 8310
2002.75204785 1366.431    0.007 8311
2002.75588794 1366.661    0.012 8312
2002.75752105 1366.620    0.007 8313
2002.76027189 1366.688    0.006 8314
2002.76302742 1366.653    0.006 8315
2002.76575028 1366.529    0.006 8316
2002.76849656 1366.512    0.007 8317
2002.77121755 1366.468    0.007 8318
2002.77397215 1366.438    0.006 8319
2002.77671813 1366.455    0.007 8320
2002.77945226 1366.474    0.009 8321
2002.78220096 1366.594    0.008 8322
2002.78492342 1366.677    0.007 8323
2002.78766625 1366.590    0.007 8324
2002.79040841 1366.513    0.007 8325
2002.79315257 1366.501    0.009 8326
2002.79590064 1366.634    0.007 8327
2002.79862531 1366.738    0.006 8328
2002.80136985 1366.701    0.007 8329
2002.80410165 1366.493    0.007 8330
2002.80684975 1366.222    0.006 8331
2002.80960090 1366.046    0.007 8332
2002.81232702 1365.929    0.006 8333
2002.81506847 1365.947    0.006 8334
2002.81779826 1366.135    0.007 8335
2002.82055137 1366.388    0.009 8336
2002.82328773 1366.649    0.007 8337
2002.82602855 1366.912    0.007 8338
2002.82877385 1366.975    0.006 8339
2002.83118105 1366.959    0.008 8340
2002.83534779 1366.690    0.012 8341
2002.83698286 1366.605    0.008 8342
2002.83972481 1366.519    0.007 8343
2002.84247605 1366.426    0.007 8344
2002.84520130 1366.096    0.008 8345
2002.84794759 1366.026    0.007 8346
2002.85035753 1366.081    0.008 8347
2002.88633058 1366.128    0.008 8360
2002.88904603 1365.996    0.007 8361
2002.89177575 1366.057    0.007 8362
2002.89453328 1366.289    0.008 8363
2002.89725017 1366.666    0.011 8364
2002.89999514 1367.029    0.008 8365
2002.90274341 1367.165    0.007 8366
2002.90547971 1367.100    0.007 8367
2002.90822661 1366.937    0.009 8368
2002.91094341 1366.924    0.007 8369
2002.91369912 1366.917    0.008 8370
2002.91644085 1366.957    0.007 8371
2002.91918349 1366.984    0.007 8372
2002.92192326 1367.031    0.007 8373
2002.92465418 1366.956    0.010 8374
2002.92740681 1366.984    0.007 8375
2002.93013102 1367.016    0.007 8376
2002.93287219 1367.240    0.008 8377
2002.93561972 1367.436    0.010 8378
2002.93835335 1367.438    0.007 8379
2002.94110913 1367.282    0.008 8380
2002.94382224 1367.183    0.009 8381
2002.94657101 1367.219    0.008 8382
2002.94931588 1367.386    0.008 8383
2002.95205735 1367.430    0.007 8384
2002.95480392 1367.159    0.011 8385
2002.95752251 1366.671    0.011 8386
2002.96027500 1366.271    0.009 8387
2002.96301330 1366.129    0.008 8388
2002.96575754 1366.129    0.009 8389
2002.96849905 1366.430    0.010 8390
2002.97122295 1366.857    0.011 8391
2002.97398268 1367.211    0.009 8392
2002.97670518 1367.479    0.009 8393
2002.97914348 1367.486    0.010 8394
2002.98342976 1366.807    0.029 8395
2002.98492857 1367.119    0.008 8396
2002.98767757 1367.094    0.009 8397
2002.99040282 1367.044    0.008 8398
2002.99315171 1367.036    0.009 8399
2002.99588802 1367.075    0.008 8400
2002.99861814 1367.096    0.008 8401
2003.00138152 1367.225    0.008 8402
2003.00410375 1367.265    0.007 8403
2003.00684900 1367.250    0.007 8404
2003.00957665 1367.075    0.009 8405
2003.01232992 1366.897    0.006 8406
2003.01508366 1366.874    0.008 8407
2003.01778875 1366.709    0.007 8408
2003.02055101 1366.785    0.008 8409
2003.02327348 1366.877    0.009 8410
2003.02603157 1366.995    0.007 8411
2003.02877505 1367.026    0.009 8412
2003.03150443 1367.030    0.006 8413
2003.03425159 1367.057    0.009 8414
2003.03697991 1366.882    0.009 8415
2003.03972760 1367.050    0.008 8416
2003.04245904 1367.089    0.011 8417
2003.04520136 1367.206    0.007 8418
2003.04795944 1367.318    0.009 8419
2003.05068233 1367.247    0.007 8420
2003.05342525 1367.289    0.008 8421
2003.05615001 1367.096    0.010 8422
2003.05890771 1367.062    0.008 8423
2003.06165664 1366.843    0.010 8424
2003.06437989 1366.680    0.006 8425
2003.06712880 1366.633    0.010 8426
2003.06985287 1366.550    0.007 8427
2003.07260500 1366.795    0.009 8428
2003.07534632 1366.831    0.010 8429
2003.07807758 1367.013    0.008 8430
2003.08082904 1367.166    0.010 8431
2003.08355135 1367.071    0.007 8432
2003.08630540 1366.941    0.007 8433
2003.08903641 1366.800    0.007 8434
2003.09178048 1366.639    0.006 8435
2003.09453175 1366.699    0.007 8436
2003.09725898 1366.964    0.008 8437
2003.10000247 1367.142    0.005 8438
2003.10272072 1367.239    0.006 8439
2003.10547681 1367.171    0.006 8440
2003.10823157 1367.118    0.006 8441
2003.10997283 1367.141    0.010 8442
2003.12303242 1367.274    0.013 8446
2003.12465499 1367.188    0.006 8447
2003.12740985 1367.120    0.008 8448
2003.13013147 1366.964    0.006 8449
2003.13288365 1366.890    0.005 8450
2003.13560700 1366.734    0.007 8451
2003.13835622 1366.408    0.008 8452
2003.14110723 1366.213    0.006 8453
2003.14383483 1366.177    0.006 8454
2003.14657959 1366.313    0.006 8455
2003.14929676 1366.531    0.008 8456
2003.15205421 1366.702    0.006 8457
2003.15480406 1366.802    0.006 8458
2003.15753102 1366.762    0.006 8459
2003.16027383 1366.722    0.006 8460
2003.16300192 1366.782    0.006 8461
2003.16575843 1366.765    0.007 8462
2003.16849155 1366.677    0.006 8463
2003.17123090 1366.624    0.006 8464
2003.17398078 1366.590    0.006 8465
2003.17670449 1366.666    0.006 8466
2003.17945953 1366.606    0.006 8467
2003.18218188 1366.578    0.006 8468
2003.18492791 1366.612    0.006 8469
2003.18768170 1366.627    0.006 8470
2003.19041001 1366.470    0.008 8471
2003.19315958 1366.249    0.006 8472
2003.19587890 1366.010    0.007 8473
2003.19862678 1365.803    0.007 8474
2003.20137253 1365.680    0.008 8475
2003.20411053 1365.671    0.006 8476
2003.20685995 1365.887    0.008 8477
2003.20957959 1366.172    0.010 8478
2003.21233916 1366.388    0.007 8479
2003.21506069 1366.411    0.006 8480
2003.21780746 1366.306    0.009 8481
2003.22056375 1366.316    0.006 8482
2003.22328535 1366.384    0.006 8483
2003.22602946 1366.455    0.006 8484
2003.22875103 1366.509    0.009 8485
2003.23150399 1366.379    0.009 8486
2003.23425641 1366.001    0.007 8487
2003.23698299 1365.965    0.006 8488
2003.23973362 1365.942    0.006 8489
2003.24245366 1365.965    0.007 8490
2003.24520316 1366.053    0.007 8491
2003.24794412 1366.175    0.007 8492
2003.25068191 1366.349    0.006 8493
2003.25343782 1366.351    0.006 8494
2003.25615619 1366.419    0.008 8495
2003.25890365 1366.468    0.007 8496
2003.26163108 1366.441    0.007 8497
2003.26438295 1366.362    0.006 8498
2003.26713657 1366.245    0.007 8499
2003.26985751 1366.133    0.007 8500
2003.27260783 1366.028    0.007 8501
2003.27532709 1366.043    0.009 8502
2003.27807753 1366.094    0.008 8503
2003.28082536 1366.269    0.008 8504
2003.28355632 1366.350    0.007 8505
2003.28630906 1366.416    0.007 8506
2003.28903334 1366.383    0.007 8507
2003.29177886 1366.324    0.006 8508
2003.29450231 1366.359    0.007 8509
2003.29725916 1366.381    0.007 8510
2003.30000098 1366.437    0.007 8511
2003.30273205 1366.445    0.007 8512
2003.30548043 1366.421    0.007 8513
2003.30821130 1366.294    0.007 8514
2003.31096212 1366.330    0.007 8515
2003.31370574 1366.265    0.008 8516
2003.31643222 1366.236    0.007 8517
2003.31918499 1366.033    0.008 8518
2003.32190570 1365.868    0.010 8519
2003.32465333 1365.689    0.008 8520
2003.32740453 1365.376    0.008 8521
2003.33013652 1365.141    0.007 8522
2003.33270633 1365.263    0.008 8523
2003.33560401 1365.508    0.009 8524
2003.33835816 1365.656    0.007 8525
2003.34105988 1365.872    0.007 8526
2003.34383569 1366.066    0.007 8527
2003.34658671 1366.055    0.009 8528
2003.34931058 1366.030    0.007 8529
2003.35205559 1366.101    0.007 8530
2003.35478320 1366.208    0.007 8531
2003.35753662 1366.276    0.007 8532
2003.36028783 1366.297    0.007 8533
2003.36300813 1366.244    0.009 8534
2003.36575934 1366.228    0.007 8535
2003.36848231 1366.314    0.007 8536
2003.37122852 1366.418    0.007 8537
2003.37371753 1366.543    0.008 8538
2003.37761083 1366.601    0.011 8539
2003.37945995 1366.632    0.007 8540
2003.38218283 1366.638    0.007 8541
2003.38493767 1366.680    0.011 8542
2003.38766096 1366.805    0.007 8543
2003.39040878 1366.844    0.007 8544
2003.39316077 1366.796    0.008 8545
2003.39588129 1366.601    0.009 8546
2003.39863536 1366.387    0.009 8547
2003.40136665 1366.094    0.008 8548
2003.40410845 1365.922    0.007 8549
2003.40685901 1366.102    0.008 8550
2003.40958365 1366.272    0.007 8551
2003.41235669 1366.347    0.007 8552
2003.41505625 1366.372    0.007 8553
2003.41780467 1366.253    0.008 8554
2003.41959280 1366.153    0.013 8555
2003.42337305 1366.002    0.010 8556
2003.42603329 1365.897    0.008 8557
2003.42871209 1365.632    0.009 8558
2003.43150638 1365.485    0.007 8559
2003.43424489 1365.213    0.011 8560
2003.43698634 1364.940    0.008 8561
2003.43973475 1364.953    0.008 8562
2003.44245833 1365.293    0.009 8563
2003.44520790 1365.763    0.012 8564
2003.44793283 1366.151    0.009 8565
2003.45068379 1366.450    0.008 8566
2003.45343517 1366.608    0.008 8567
2003.45615830 1366.691    0.008 8568
2003.45890813 1366.701    0.008 8569
2003.46163150 1366.590    0.009 8570
2003.46437776 1366.345    0.008 8571
2003.46712802 1366.117    0.009 8572
2003.46986261 1366.063    0.007 8573
2003.47260792 1366.144    0.008 8574
2003.47533145 1366.249    0.007 8575
2003.47808044 1366.251    0.007 8576
2003.48082127 1366.272    0.007 8577
2003.48356182 1366.263    0.007 8578
2003.48630886 1366.303    0.007 8579
2003.48903131 1366.219    0.008 8580
2003.49178307 1366.189    0.007 8581
2003.49451638 1366.068    0.007 8582
2003.49725934 1365.861    0.007 8583
2003.50001251 1365.754    0.007 8584
2003.50272791 1365.582    0.007 8585
2003.50548386 1365.328    0.009 8586
2003.50820937 1365.276    0.010 8587
2003.51095769 1365.558    0.009 8588
2003.51371192 1365.973    0.009 8589
2003.51643654 1366.339    0.007 8590
2003.51918186 1366.590    0.006 8591
2003.52189992 1366.500    0.007 8592
2003.52465369 1366.376    0.007 8593
2003.52739908 1366.388    0.008 8594
2003.53013580 1366.443    0.006 8595
2003.53288206 1366.458    0.006 8596
2003.53560561 1366.430    0.007 8597
2003.53835544 1366.254    0.008 8598
2003.54109285 1366.055    0.006 8599
2003.54383298 1365.887    0.007 8600
2003.54658558 1365.502    0.008 8601
2003.54930700 1365.199    0.009 8602
2003.55205785 1365.377    0.008 8603
2003.55478442 1365.833    0.009 8604
2003.55753732 1366.286    0.008 8605
2003.56028514 1366.429    0.009 8606
2003.56300648 1366.429    0.006 8607
2003.56575832 1366.427    0.008 8608
2003.56848015 1366.431    0.007 8609
2003.57123119 1366.328    0.007 8610
2003.57398496 1366.291    0.008 8611
2003.57670952 1366.283    0.007 8612
2003.57945862 1366.256    0.006 8613
2003.58217754 1366.194    0.007 8614
2003.58493020 1366.256    0.007 8615
2003.58767739 1366.068    0.009 8616
2003.59041118 1365.926    0.007 8617
2003.59315931 1365.749    0.007 8618
2003.59588299 1365.615    0.008 8619
2003.59862641 1365.532    0.007 8620
2003.60136558 1365.458    0.008 8621
2003.60411295 1365.734    0.008 8622
2003.60685812 1366.096    0.009 8623
2003.60958183 1366.374    0.006 8624
2003.61232716 1366.492    0.007 8625
2003.61506037 1366.156    0.010 8626
2003.61781193 1365.877    0.006 8627
2003.62055690 1365.832    0.007 8628
2003.62328079 1366.020    0.007 8629
2003.62603093 1366.308    0.009 8630
2003.62875289 1366.525    0.007 8631
2003.63150889 1366.573    0.007 8632
2003.63425251 1366.465    0.007 8633
2003.63698349 1366.196    0.008 8634
2003.63973038 1366.018    0.006 8635
2003.64245501 1366.068    0.008 8636
2003.64520981 1366.182    0.006 8637
2003.64794653 1366.396    0.007 8638
2003.65068437 1366.428    0.007 8639
2003.65343306 1366.401    0.006 8640
2003.65615630 1366.420    0.008 8641
2003.65890402 1366.496    0.006 8642
2003.66163724 1366.580    0.006 8643
2003.66438526 1366.664    0.007 8644
2003.66713380 1366.641    0.006 8645
2003.66985524 1366.584    0.006 8646
2003.67260838 1366.434    0.008 8647
2003.67533127 1366.359    0.006 8648
2003.67808258 1366.459    0.006 8649
2003.68083679 1366.636    0.009 8650
2003.68355606 1366.698    0.006 8651
2003.68630678 1366.579    0.006 8652
2003.68902819 1366.414    0.007 8653
2003.69178180 1366.177    0.006 8654
2003.69452579 1366.124    0.008 8655
2003.69725690 1366.237    0.006 8656
2003.70000684 1366.370    0.006 8657
2003.70273027 1366.477    0.007 8658
2003.70548270 1366.437    0.008 8659
2003.70822108 1366.309    0.007 8660
2003.71095706 1366.153    0.006 8661
2003.71370735 1366.217    0.006 8662
2003.71642588 1366.390    0.007 8663
2003.71918286 1366.447    0.008 8664
2003.72191436 1366.409    0.006 8665
2003.72465724 1366.321    0.007 8666
2003.72740464 1366.171    0.007 8667
2003.73012906 1365.969    0.007 8668
2003.73288224 1365.923    0.006 8669
2003.73560721 1365.924    0.006 8670
2003.73836141 1366.022    0.005 8671
2003.74110686 1366.021    0.008 8672
2003.74382916 1366.233    0.008 8673
2003.74657965 1366.450    0.007 8674
2003.74929821 1366.531    0.006 8675
2003.75205258 1366.477    0.006 8676
2003.75480015 1366.428    0.006 8677
2003.75753230 1366.342    0.006 8678
2003.76028120 1366.304    0.006 8679
2003.76300218 1366.284    0.005 8680
2003.76575422 1366.193    0.006 8681
2003.76849497 1366.221    0.006 8682
2003.77123015 1366.430    0.006 8683
2003.77397655 1366.626    0.006 8684
2003.77670373 1366.661    0.006 8685
2003.77945584 1366.498    0.007 8686
2003.78219379 1366.351    0.007 8687
2003.78493504 1366.312    0.005 8688
2003.78768005 1366.269    0.007 8689
2003.79040093 1366.366    0.006 8690
2003.79315432 1366.473    0.007 8691
2003.79588536 1366.561    0.006 8692
2003.79863668 1366.309    0.009 8693
2003.80146447 1365.640    0.038 8694
2003.80360687 1365.017    0.010 8695
2003.81341432 1363.970    0.012 8698
2003.81508035 1363.806    0.006 8699
2003.81780355 1363.712    0.006 8700
2003.82055701 1363.341    0.015 8701
2003.82327810 1362.564    0.011 8702
2003.82602619 1362.097    0.006 8703
2003.82877231 1362.411    0.012 8704
2003.83150378 1363.368    0.018 8705
2003.83425590 1364.598    0.018 8706
2003.83697912 1365.638    0.015 8707
2003.83862210 1366.148    0.013 8708
2003.84246713 1366.662    0.006 8709
2003.84520523 1366.682    0.006 8710
2003.84795766 1366.639    0.006 8711
2003.85067501 1366.485    0.006 8712
2003.85342683 1366.284    0.007 8713
2003.85615630 1366.172    0.006 8714
2003.85890716 1366.120    0.006 8715
2003.86165893 1366.185    0.007 8716
2003.86437810 1366.287    0.006 8717
2003.86712823 1366.332    0.006 8718
2003.86983951 1366.331    0.010 8719
2003.87260596 1366.232    0.006 8720
2003.87535313 1366.128    0.005 8721
2003.87807963 1366.025    0.005 8722
2003.88082644 1365.964    0.006 8723
2003.88354913 1366.041    0.006 8724
2003.88630246 1366.057    0.006 8725
2003.88904749 1365.959    0.006 8726
2003.89177812 1365.780    0.007 8727
2003.89449110 1365.772    0.006 8728
2003.89725002 1365.835    0.007 8729
2003.89999458 1365.972    0.006 8730
2003.90274028 1366.062    0.006 8731
2003.90547920 1366.330    0.010 8732
2003.90822810 1366.722    0.007 8733
2003.91095108 1366.965    0.006 8734
2003.91369742 1367.072    0.006 8735
2003.91643397 1366.870    0.007 8736
2003.91917703 1366.629    0.007 8737
2003.92192961 1366.484    0.006 8738
2003.92465167 1366.346    0.005 8739
2003.92739657 1366.174    0.006 8740
2003.93012833 1366.082    0.006 8741
2003.93288087 1366.165    0.006 8742
2003.93563205 1366.172    0.006 8743
2003.93834989 1366.181    0.007 8744
2003.94110001 1366.188    0.006 8745
2003.94382221 1366.151    0.006 8746
2003.94657420 1366.146    0.006 8747
2003.94932606 1366.058    0.006 8748
2003.95205105 1366.008    0.006 8749
2003.95480254 1366.041    0.006 8750
2003.95751684 1366.232    0.007 8751
2003.96027462 1366.443    0.006 8752
2003.96301759 1366.636    0.006 8753
2003.96575185 1366.652    0.006 8754
2003.96850458 1366.680    0.006 8755
2003.97122256 1366.679    0.005 8756
2003.97397403 1366.610    0.005 8757
2003.97670415 1366.449    0.006 8758
2003.97945224 1366.348    0.006 8759
2003.98220596 1366.329    0.008 8760
2003.98492511 1366.408    0.006 8761
2003.98767373 1366.597    0.007 8762
2003.99039966 1366.679    0.007 8763
2003.99315433 1366.748    0.005 8764
2003.99590248 1366.706    0.006 8765
2003.99862476 1366.532    0.007 8766
2004.00137231 1366.297    0.009 8767
2004.00408404 1366.101    0.008 8768
2004.00682453 1365.856    0.008 8769
2004.00957131 1365.652    0.007 8770
2004.01229076 1365.411    0.007 8771
2004.01503106 1365.224    0.006 8772
2004.01774713 1365.259    0.006 8773
2004.02049307 1365.285    0.007 8774
2004.02322525 1365.392    0.007 8775
2004.02595568 1365.581    0.007 8776
2004.02869390 1365.776    0.009 8777
2004.03141016 1366.023    0.007 8778
2004.03415477 1366.271    0.006 8779
2004.03687865 1366.408    0.008 8780
2004.03962029 1366.498    0.006 8781
2004.04235948 1366.554    0.007 8782
2004.04507423 1366.607    0.008 8783
2004.04781987 1366.526    0.006 8784
2004.05053775 1366.381    0.006 8785
2004.05326190 1366.384    0.007 8786
2004.05602476 1366.488    0.006 8787
2004.05873846 1366.647    0.006 8788
2004.06147820 1366.812    0.007 8789
2004.06419347 1366.845    0.006 8790
2004.06694122 1366.760    0.006 8791
2004.06967868 1366.526    0.007 8792
2004.07240035 1366.345    0.006 8793
2004.07514350 1366.223    0.007 8794
2004.07785744 1366.236    0.006 8795
2004.08060371 1366.230    0.005 8796
2004.08333532 1366.227    0.006 8797
2004.08606383 1366.154    0.006 8798
2004.08880442 1366.083    0.007 8799
2004.09152080 1366.139    0.005 8800
2004.09426397 1366.154    0.006 8801
2004.09698876 1366.004    0.006 8802
2004.09972555 1365.903    0.005 8803
2004.10246975 1365.866    0.006 8804
2004.10518487 1365.923    0.005 8805
2004.10792717 1366.097    0.007 8806
2004.11064546 1366.260    0.006 8807
2004.11339026 1366.364    0.008 8808
2004.11613328 1366.415    0.006 8809
2004.11884674 1366.364    0.005 8810
2004.12159078 1366.400    0.006 8811
2004.12430230 1366.494    0.006 8812
2004.12704746 1366.578    0.006 8813
2004.12978994 1366.611    0.005 8814
2004.13251069 1366.587    0.006 8815
2004.13525420 1366.577    0.005 8816
2004.13774192 1366.540    0.009 8817
2004.14071097 1366.432    0.006 8818
2004.14344659 1366.150    0.007 8819
2004.14617347 1365.850    0.006 8820
2004.14891758 1365.670    0.006 8821
2004.15162708 1365.370    0.006 8822
2004.15437128 1365.215    0.006 8823
2004.15709557 1365.291    0.008 8824
2004.15983697 1365.728    0.009 8825
2004.16257805 1366.066    0.007 8826
2004.16529364 1366.213    0.006 8827
2004.16803472 1366.067    0.006 8828
2004.17075307 1365.928    0.007 8829
2004.17349873 1365.874    0.006 8830
2004.17624440 1365.911    0.006 8831
2004.17895706 1366.033    0.006 8832
2004.18170107 1366.101    0.006 8833
2004.18441403 1365.985    0.006 8834
2004.18715879 1365.808    0.007 8835
2004.18990108 1365.625    0.006 8836
2004.19262343 1365.513    0.007 8837
2004.19508329 1365.606    0.006 8838
2004.23468560 1366.246    0.025 8852
2004.23635112 1366.188    0.006 8853
2004.23906883 1366.044    0.008 8854
2004.24180857 1365.909    0.006 8855
2004.24452061 1365.728    0.006 8856
2004.24726894 1365.600    0.006 8857
2004.25000461 1365.604    0.006 8858
2004.25273054 1365.749    0.006 8859
2004.25546929 1365.937    0.006 8860
2004.25818578 1366.052    0.007 8861
2004.26093033 1366.049    0.005 8862
2004.26366251 1366.040    0.009 8863
2004.26639413 1366.041    0.005 8864
2004.26913263 1366.011    0.006 8865
2004.27184746 1365.989    0.007 8866
2004.27459375 1365.971    0.006 8867
2004.27731788 1366.062    0.006 8868
2004.28005914 1366.180    0.006 8869
2004.28279592 1366.177    0.006 8870
2004.28551256 1366.096    0.008 8871
2004.28825395 1366.090    0.006 8872
2004.29096958 1366.135    0.006 8873
2004.29371946 1366.199    0.008 8874
2004.29645585 1366.125    0.006 8875
2004.29917158 1365.922    0.008 8876
2004.30191657 1365.838    0.005 8877
2004.30463125 1365.903    0.006 8878
2004.30737252 1365.958    0.007 8879
2004.31011522 1365.926    0.006 8880
2004.31284056 1365.909    0.005 8881
2004.31557918 1365.885    0.006 8882
2004.31829299 1365.890    0.006 8883
2004.32104020 1365.918    0.006 8884
2004.32377114 1365.917    0.006 8885
2004.32650326 1365.937    0.005 8886
2004.32923983 1365.975    0.006 8887
2004.33195648 1365.939    0.006 8888
2004.33518544 1365.910    0.024 8889
2004.33686152 1365.984    0.007 8890
2004.34882810 1365.931    0.008 8894
2004.35108401 1365.972    0.006 8895
2004.35383010 1366.009    0.006 8896
2004.35656944 1366.011    0.006 8897
2004.35928487 1365.936    0.007 8898
2004.36202460 1365.839    0.007 8899
2004.36474088 1365.694    0.009 8900
2004.36748376 1365.534    0.007 8901
2004.37022463 1365.334    0.006 8902
2004.37294655 1365.339    0.006 8903
2004.37569005 1365.552    0.006 8904
2004.37840587 1365.775    0.007 8905
2004.38115154 1365.865    0.008 8906
2004.38388306 1365.913    0.006 8907
2004.38660654 1365.923    0.006 8908
2004.38935240 1365.843    0.006 8909
2004.39206988 1365.717    0.008 8910
2004.39481255 1365.586    0.005 8911
2004.39753794 1365.607    0.006 8912
2004.40027431 1365.651    0.007 8913
2004.40301955 1365.689    0.006 8914
2004.40572931 1365.765    0.006 8915
2004.40847037 1365.896    0.007 8916
2004.41119152 1366.025    0.006 8917
2004.41393803 1366.005    0.008 8918
2004.41667539 1365.914    0.006 8919
2004.41939250 1365.863    0.007 8920
2004.42213684 1365.881    0.006 8921
2004.42485197 1365.907    0.006 8922
2004.42758546 1365.989    0.009 8923
2004.43031066 1366.043    0.006 8924
2004.43306784 1366.017    0.006 8925
2004.43584851 1365.665    0.030 8926
2004.43851273 1365.921    0.007 8927
2004.44093467 1365.875    0.007 8928
2004.45492916 1365.844    0.007 8933
2004.45764795 1365.653    0.006 8934
2004.46038166 1365.446    0.007 8935
2004.46310211 1365.129    0.007 8936
2004.46583871 1364.952    0.007 8937
2004.46858294 1364.800    0.007 8938
2004.47131028 1364.987    0.009 8939
2004.47410687 1365.320    0.008 8940
2004.47678953 1365.635    0.008 8941
2004.47949899 1365.966    0.007 8942
2004.48224631 1366.125    0.007 8943
2004.48496125 1366.112    0.006 8944
2004.48770652 1365.995    0.007 8945
2004.49044596 1365.915    0.005 8946
2004.49316197 1365.865    0.008 8947
2004.49590832 1365.811    0.006 8948
2004.49859765 1365.787    0.007 8949
2004.50136373 1365.765    0.006 8950
2004.50410292 1365.774    0.007 8951
2004.50682860 1365.816    0.006 8952
2004.50957046 1365.788    0.006 8953
2004.51228754 1365.766    0.006 8954
2004.51502586 1365.797    0.006 8955
2004.51776345 1365.760    0.007 8956
2004.52048566 1365.649    0.006 8957
2004.52323590 1365.598    0.007 8958
2004.52594712 1365.680    0.006 8959
2004.52869142 1365.764    0.007 8960
2004.53141937 1365.900    0.007 8961
2004.53415620 1365.964    0.007 8962
2004.53689817 1365.875    0.007 8963
2004.53961064 1365.618    0.006 8964
2004.54235361 1365.386    0.008 8965
2004.54507524 1365.215    0.007 8966
2004.54781506 1364.950    0.010 8967
2004.55055448 1364.672    0.007 8968
2004.55327159 1364.284    0.009 8969
2004.55601296 1364.111    0.007 8970
2004.55870894 1364.170    0.006 8971
2004.56147664 1364.317    0.009 8972
2004.56421832 1364.665    0.009 8973
2004.56693766 1365.097    0.010 8974
2004.56967954 1365.484    0.008 8975
2004.57239667 1365.684    0.009 8976
2004.57513479 1365.639    0.006 8977
2004.57787459 1365.542    0.006 8978
2004.58059750 1365.580    0.008 8979
2004.58334100 1365.599    0.006 8980
2004.58605495 1365.588    0.006 8981
2004.58879878 1365.541    0.007 8982
2004.59153330 1365.530    0.006 8983
2004.59426074 1365.497    0.005 8984
2004.59700546 1365.532    0.008 8985
2004.59971646 1365.683    0.007 8986
2004.60246046 1365.785    0.006 8987
2004.60519357 1365.643    0.008 8988
2004.60792053 1365.338    0.008 8989
2004.61066281 1364.897    0.009 8990
2004.61337833 1364.640    0.009 8991
2004.61611895 1364.829    0.006 8992
2004.61884839 1364.967    0.007 8993
2004.62158820 1365.296    0.011 8994
2004.62432749 1365.514    0.006 8995
2004.62704000 1365.641    0.006 8996
2004.62978495 1365.555    0.006 8997
2004.63250621 1365.493    0.007 8998
2004.63524658 1365.452    0.005 8999
2004.63798976 1365.427    0.006 9000
2004.64070538 1365.509    0.009 9001
2004.64344684 1365.589    0.006 9002
2004.64616586 1365.664    0.005 9003
2004.64890878 1365.640    0.006 9004
2004.65165225 1365.711    0.007 9005
2004.65436361 1365.804    0.006 9006
2004.65711224 1365.906    0.005 9007
2004.65982475 1365.911    0.006 9008
2004.66256849 1365.849    0.007 9009
2004.66530545 1365.724    0.007 9010
2004.66803050 1365.650    0.005 9011
2004.67077152 1365.775    0.007 9012
2004.67348595 1365.887    0.009 9013
2004.67622877 1365.918    0.007 9014
2004.67896327 1365.897    0.005 9015
2004.68169032 1365.829    0.006 9016
2004.68443381 1365.664    0.007 9017
2004.68714469 1365.551    0.009 9018
2004.68989261 1365.706    0.007 9019
2004.69262164 1366.040    0.007 9020
2004.69535568 1366.259    0.006 9021
2004.69777863 1366.245    0.006 9022
2004.70081121 1366.019    0.006 9023
2004.70355615 1365.772    0.006 9024
2004.70628212 1365.735    0.006 9025
2004.70901890 1365.843    0.006 9026
2004.71175781 1365.868    0.006 9027
2004.71447443 1365.852    0.006 9028
2004.71721863 1365.787    0.006 9029
2004.71993806 1365.680    0.006 9030
2004.72267884 1365.582    0.006 9031
2004.72541929 1365.485    0.006 9032
2004.72813721 1365.555    0.008 9033
2004.73087554 1365.698    0.005 9034
2004.73359811 1365.752    0.006 9035
2004.73634103 1365.819    0.006 9036
2004.73908209 1365.814    0.006 9037
2004.74179941 1365.731    0.005 9038
2004.74454129 1365.782    0.007 9039
2004.74725207 1365.878    0.006 9040
2004.74999783 1365.967    0.006 9041
2004.75273800 1365.998    0.006 9042
2004.75545832 1366.001    0.007 9043
2004.75820444 1365.993    0.007 9044
2004.76091629 1366.043    0.006 9045
2004.76366104 1366.121    0.006 9046
2004.76639686 1366.244    0.006 9047
2004.76912363 1366.253    0.005 9048
2004.77186648 1366.196    0.005 9049
2004.77458241 1366.082    0.009 9050
2004.77732642 1366.003    0.006 9051
2004.78005689 1365.999    0.005 9052
2004.78272509 1366.024    0.006 9053
2004.78560292 1365.884    0.133 9054
2004.78711580 1366.024    0.012 9055
2004.79207578 1365.919    0.013 9056
2004.79371294 1365.837    0.006 9057
2004.79644905 1365.782    0.006 9058
2004.79919063 1365.804    0.006 9059
2004.80190536 1365.834    0.006 9060
2004.80464512 1365.950    0.006 9061
2004.80736845 1365.961    0.009 9062
2004.81011263 1365.858    0.006 9063
2004.81285466 1365.667    0.006 9064
2004.81556789 1365.559    0.005 9065
2004.81831126 1365.618    0.006 9066
2004.82102540 1365.714    0.006 9067
2004.82377194 1365.800    0.006 9068
2004.82651031 1365.733    0.007 9069
2004.82922940 1365.569    0.005 9070
2004.83197275 1365.429    0.006 9071
2004.83468594 1365.328    0.006 9072
2004.83743284 1365.317    0.007 9073
2004.84017208 1365.281    0.006 9074
2004.84289367 1365.045    0.007 9075
2004.84563335 1364.873    0.006 9076
2004.84834999 1364.944    0.007 9077
2004.85109715 1365.267    0.009 9078
2004.85382942 1365.561    0.007 9079
2004.85655623 1365.850    0.006 9080
2004.85929959 1366.002    0.006 9081
2004.86201187 1366.135    0.006 9082
2004.86475104 1366.094    0.005 9083
2004.86748488 1365.961    0.006 9084
2004.87021784 1365.909    0.005 9085
2004.87296098 1365.869    0.006 9086
2004.87567418 1365.987    0.006 9087
2004.87841456 1366.053    0.005 9088
2004.88114355 1366.065    0.008 9089
2004.88388031 1366.181    0.005 9090
2004.88662349 1366.229    0.006 9091
2004.88933826 1366.224    0.006 9092
2004.89208184 1366.162    0.009 9093
2004.89479757 1366.194    0.005 9094
2004.89754147 1366.306    0.006 9095
2004.90028784 1366.356    0.006 9096
2004.90299875 1366.387    0.005 9097
2004.90574365 1366.390    0.006 9098
2004.90846126 1366.273    0.006 9099
2004.91120001 1366.131    0.006 9100
2004.91394392 1365.995    0.005 9101
2004.91666676 1365.858    0.006 9102
2004.91940516 1365.930    0.006 9103
2004.92211837 1366.092    0.007 9104
2004.92485860 1366.205    0.006 9105
2004.92760115 1366.210    0.009 9106
2004.93032607 1366.153    0.006 9107
2004.93306770 1366.145    0.006 9108
2004.93577938 1366.131    0.006 9109
2004.93852375 1366.103    0.006 9110
2004.94125557 1366.065    0.006 9111
2004.94398578 1366.037    0.006 9112
2004.94673163 1366.037    0.007 9113
2004.94944480 1366.066    0.006 9114
2004.95218613 1366.038    0.006 9115
2004.95491583 1365.985    0.010 9116
2004.95764973 1365.972    0.006 9117
2004.96039392 1366.025    0.007 9118
2004.96310806 1366.060    0.008 9119
2004.96584981 1366.036    0.005 9120
2004.96857218 1365.957    0.006 9121
2004.97131289 1365.953    0.007 9122
2004.97405816 1366.050    0.005 9123
2004.97677042 1366.155    0.006 9124
2004.97951359 1366.280    0.008 9125
2004.98222682 1366.320    0.006 9126
2004.98497027 1366.344    0.006 9127
2004.98771692 1366.339    0.008 9128
2004.99043057 1366.277    0.007 9129
2004.99317548 1366.227    0.006 9130
2004.99589052 1366.202    0.008 9131
2004.99860903 1366.222    0.006 9132
2005.00138201 1366.168    0.006 9133
2005.00410753 1366.083    0.007 9134
2005.00685430 1366.023    0.006 9135
2005.00957843 1366.043    0.006 9136
2005.01232657 1366.012    0.007 9137
2005.01506970 1366.020    0.006 9138
2005.01780609 1366.033    0.007 9139
2005.02055470 1366.021    0.006 9140
2005.02328036 1365.999    0.008 9141
2005.02602787 1365.970    0.006 9142
2005.02876459 1365.805    0.007 9143
2005.03150615 1365.543    0.010 9144
2005.03425687 1364.857    0.012 9145
2005.03697827 1364.146    0.012 9146
2005.03972744 1363.825    0.007 9147
2005.04245769 1363.910    0.008 9148
2005.04520402 1364.420    0.012 9149
2005.04795809 1365.116    0.012 9150
2005.05068067 1365.699    0.010 9151
2005.05342873 1366.050    0.007 9152
2005.05615743 1366.105    0.006 9153
2005.05890538 1366.108    0.005 9154
2005.06165430 1366.155    0.005 9155
2005.06437576 1366.099    0.005 9156
2005.06712827 1366.024    0.005 9157
2005.06984548 1366.024    0.006 9158
2005.07259861 1366.070    0.005 9159
2005.07534680 1366.074    0.006 9160
2005.07807518 1365.995    0.006 9161
2005.08083019 1365.848    0.007 9162
2005.08354899 1365.848    0.006 9163
2005.08629993 1365.896    0.005 9164
2005.08904313 1365.888    0.006 9165
2005.09177973 1365.838    0.007 9166
2005.09452911 1365.848    0.006 9167
2005.09725359 1365.968    0.008 9168
2005.09999953 1366.087    0.005 9169
2005.10273646 1366.166    0.006 9170
2005.10547713 1366.122    0.006 9171
2005.10822906 1366.060    0.005 9172
2005.11095068 1365.949    0.006 9173
2005.11370254 1365.781    0.008 9174
2005.11643461 1365.646    0.006 9175
2005.11918233 1365.585    0.008 9176
2005.12192853 1365.635    0.005 9177
2005.12465281 1365.656    0.008 9178
2005.12740220 1365.665    0.006 9179
2005.13011873 1365.605    0.007 9180
2005.13287864 1365.688    0.006 9181
2005.13563121 1365.817    0.007 9182
2005.13834352 1365.865    0.006 9183
2005.14110510 1365.886    0.006 9184
2005.14382202 1365.969    0.005 9185
2005.14657536 1365.926    0.006 9186
2005.14931951 1365.911    0.005 9187
2005.15205200 1365.887    0.005 9188
2005.15480020 1365.836    0.005 9189
2005.15752543 1365.779    0.007 9190
2005.16027059 1365.713    0.006 9191
2005.16301744 1365.667    0.006 9192
2005.16575269 1365.646    0.008 9193
2005.16850335 1365.683    0.006 9194
2005.17122654 1365.762    0.006 9195
2005.17397247 1365.787    0.006 9196
2005.17671414 1365.833    0.006 9197
2005.17944894 1365.885    0.005 9198
2005.18220195 1365.913    0.007 9199
2005.18492087 1365.857    0.005 9200
2005.18767566 1365.843    0.006 9201
2005.19040660 1365.719    0.006 9202
2005.19315083 1365.574    0.007 9203
2005.19590237 1365.485    0.005 9204
2005.19862116 1365.494    0.006 9205
2005.20131213 1365.558    0.007 9206
2005.20410256 1365.644    0.006 9207
2005.20685083 1365.726    0.006 9208
2005.20960018 1365.793    0.005 9209
2005.21231944 1365.815    0.006 9210
2005.21507414 1365.855    0.005 9211
2005.21779308 1365.868    0.006 9212
2005.22054637 1365.794    0.007 9213
2005.22328911 1365.736    0.005 9214
2005.22602288 1365.666    0.006 9215
2005.22848875 1365.650    0.008 9216
